Data from HR4C60381__0__14-56-08-570.txt Node

Date: Tue Apr 18 14:56:08 CEST 2023
User: stevengebel
Spectrometer: HR4C6038
Trigger mode: 4
Integration Time (sec): 5.000000E-1
Scans to average: 1
Electric dark correction enabled: true
Nonlinearity correction enabled: false
Boxcar width: 0
XAxis mode: Wavelengths
Number of Pixels in Spectrum: 3648
>>>>>Begin Spectral Data<<<<<
679.61	-435.46
679.642	-435.46
679.675	-435.46
679.708	-434.46
679.741	0.54
679.773	13.54
679.806	-3.46
679.839	10.54
679.871	-11.46
679.904	-52.46
679.937	-11.46
679.97	13.54
680.002	-39.46
680.035	68.54
680.068	14.54
680.1	-52.46
680.133	44.54
680.166	5.54
680.198	-6.46
680.231	55.54
680.264	-24.46
680.296	164.54
680.329	43.54
680.362	48.54
680.394	87.54
680.427	11.54
680.46	12.54
680.492	81.54
680.525	15.54
680.558	-13.46
680.59	-60.46
680.623	96.54
680.656	-7.46
680.688	7.54
680.721	-17.46
680.753	-8.46
680.786	28.54
680.819	28.54
680.851	62.54
680.884	47.54
680.917	111.54
680.949	74.54
680.982	-42.46
681.014	176.54
681.047	44.54
681.08	33.54
681.112	56.54
681.145	34.54
681.177	26.54
681.21	41.54
681.243	-19.46
681.275	11.54
681.308	44.54
681.34	88.54
681.373	-24.46
681.405	4.54
681.438	110.54
681.471	90.54
681.503	66.54
681.536	30.54
681.568	-13.46
681.601	97.54
681.633	12.54
681.666	58.54
681.698	27.54
681.731	-35.46
681.764	32.54
681.796	-3.46
681.829	17.54
681.861	-7.46
681.894	6.54
681.926	66.54
681.959	101.54
681.991	72.54
682.024	66.54
682.056	35.54
682.089	45.54
682.121	42.54
682.154	19.54
682.186	29.54
682.219	76.54
682.251	24.54
682.284	80.54
682.316	43.54
682.349	22.54
682.381	71.54
682.414	42.54
682.446	20.54
682.479	24.54
682.511	27.54
682.544	10.54
682.576	8.54
682.609	46.54
682.641	-24.46
682.674	-16.46
682.706	-22.46
682.738	14.54
682.771	60.54
682.803	-47.46
682.836	15.54
682.868	6.54
682.901	33.54
682.933	17.54
682.966	21.54
682.998	16.54
683.03	67.54
683.063	0.54
683.095	47.54
683.128	-19.46
683.16	32.54
683.193	34.54
683.225	93.54
683.257	60.54
683.29	142.54
683.322	49.54
683.355	131.54
683.387	21.54
683.419	8.54
683.452	45.54
683.484	-15.46
683.517	128.54
683.549	137.54
683.581	22.54
683.614	41.54
683.646	66.54
683.678	99.54
683.711	23.54
683.743	124.54
683.776	111.54
683.808	128.54
683.84	-65.46
683.873	-38.46
683.905	35.54
683.937	12.54
683.97	-10.46
684.002	102.54
684.034	17.54
684.067	83.54
684.099	83.54
684.131	112.54
684.164	66.54
684.196	29.54
684.228	80.54
684.261	72.54
684.293	-3.46
684.325	13.54
684.358	19.54
684.39	89.54
684.422	57.54
684.455	24.54
684.487	-51.46
684.519	51.54
684.551	65.54
684.584	125.54
684.616	37.54
684.648	49.54
684.681	71.54
684.713	36.54
684.745	101.54
684.777	76.54
684.81	79.54
684.842	123.54
684.874	-47.46
684.906	-17.46
684.939	47.54
684.971	104.54
685.003	55.54
685.035	-57.46
685.068	94.54
685.1	147.54
685.132	169.54
685.164	24.54
685.197	60.54
685.229	58.54
685.261	130.54
685.293	17.54
685.326	-3.46
685.358	8.54
685.39	55.54
685.422	12.54
685.455	43.54
685.487	39.54
685.519	41.54
685.551	38.54
685.583	-43.46
685.616	-45.46
685.648	35.54
685.68	52.54
685.712	45.54
685.744	-33.46
685.776	-28.46
685.809	58.54
685.841	50.54
685.873	5.54
685.905	9.54
685.937	25.54
685.97	26.54
686.002	128.54
686.034	87.54
686.066	-20.46
686.098	7.54
686.13	-48.46
686.163	63.54
686.195	69.54
686.227	123.54
686.259	-62.46
686.291	28.54
686.323	3.54
686.355	51.54
686.387	74.54
686.42	91.54
686.452	-63.46
686.484	119.54
686.516	66.54
686.548	-68.46
686.58	27.54
686.612	22.54
686.644	3.54
686.677	-30.46
686.709	34.54
686.741	-1.46
686.773	39.54
686.805	2.54
686.837	36.54
686.869	-20.46
686.901	-4.46
686.933	6.54
686.965	59.54
686.997	83.54
687.03	-4.46
687.062	-0.46
687.094	61.54
687.126	22.54
687.158	125.54
687.19	19.54
687.222	47.54
687.254	67.54
687.286	94.54
687.318	12.54
687.35	17.54
687.382	-23.46
687.414	25.54
687.446	51.54
687.478	40.54
687.51	29.54
687.542	-34.46
687.574	-9.46
687.606	55.54
687.638	24.54
687.67	17.54
687.702	9.54
687.734	51.54
687.766	174.54
687.798	-6.46
687.83	23.54
687.862	20.54
687.894	-101.46
687.926	86.54
687.958	1.54
687.99	-35.46
688.022	22.54
688.054	-19.46
688.086	15.54
688.118	63.54
688.15	-3.46
688.182	53.54
688.214	83.54
688.246	8.54
688.278	76.54
688.31	7.54
688.342	8.54
688.374	-11.46
688.406	-28.46
688.438	121.54
688.47	87.54
688.502	51.54
688.534	-44.46
688.566	-21.46
688.598	-24.46
688.63	99.54
688.662	45.54
688.693	11.54
688.725	38.54
688.757	31.54
688.789	77.54
688.821	49.54
688.853	-39.46
688.885	43.54
688.917	65.54
688.949	84.54
688.981	26.54
689.013	12.54
689.044	24.54
689.076	86.54
689.108	143.54
689.14	70.54
689.172	61.54
689.204	114.54
689.236	-27.46
689.268	28.54
689.3	105.54
689.331	25.54
689.363	41.54
689.395	-35.46
689.427	83.54
689.459	53.54
689.491	5.54
689.523	-0.46
689.554	-66.46
689.586	-21.46
689.618	7.54
689.65	-9.46
689.682	50.54
689.714	33.54
689.745	95.54
689.777	39.54
689.809	20.54
689.841	30.54
689.873	-38.46
689.905	139.54
689.936	6.54
689.968	83.54
690	12.54
690.032	0.54
690.064	7.54
690.095	9.54
690.127	29.54
690.159	-3.46
690.191	45.54
690.223	-42.46
690.254	-12.46
690.286	74.54
690.318	0.54
690.35	-62.46
690.381	79.54
690.413	48.54
690.445	-31.46
690.477	-6.46
690.508	29.54
690.54	73.54
690.572	88.54
690.604	73.54
690.636	33.54
690.667	-19.46
690.699	66.54
690.731	15.54
690.762	-11.46
690.794	55.54
690.826	82.54
690.858	27.54
690.889	-35.46
690.921	64.54
690.953	38.54
690.985	22.54
691.016	-6.46
691.048	82.54
691.08	64.54
691.111	127.54
691.143	61.54
691.175	96.54
691.207	83.54
691.238	41.54
691.27	44.54
691.302	6.54
691.333	16.54
691.365	19.54
691.397	64.54
691.428	92.54
691.46	-2.46
691.492	43.54
691.523	35.54
691.555	75.54
691.587	30.54
691.618	127.54
691.65	119.54
691.682	52.54
691.713	-20.46
691.745	94.54
691.777	1.54
691.808	93.54
691.84	31.54
691.872	76.54
691.903	95.54
691.935	96.54
691.966	73.54
691.998	60.54
692.03	76.54
692.061	-41.46
692.093	72.54
692.125	121.54
692.156	195.54
692.188	179.54
692.219	84.54
692.251	92.54
692.283	-3.46
692.314	59.54
692.346	197.54
692.377	130.54
692.409	178.54
692.441	162.54
692.472	279.54
692.504	210.54
692.535	258.54
692.567	202.54
692.598	344.54
692.63	309.54
692.662	373.54
692.693	396.54
692.725	437.54
692.756	582.54
692.788	449.54
692.819	485.54
692.851	438.54
692.882	444.54
692.914	507.54
692.946	730.54
692.977	639.54
693.009	483.54
693.04	496.54
693.072	492.54
693.103	460.54
693.135	427.54
693.166	313.54
693.198	324.54
693.229	331.54
693.261	258.54
693.292	169.54
693.324	339.54
693.355	228.54
693.387	416.54
693.418	203.54
693.45	234.54
693.481	229.54
693.513	149.54
693.544	170.54
693.576	169.54
693.607	205.54
693.639	223.54
693.67	232.54
693.702	193.54
693.733	218.54
693.765	235.54
693.796	270.54
693.827	274.54
693.859	385.54
693.89	403.54
693.922	383.54
693.953	471.54
693.985	463.54
694.016	603.54
694.048	468.54
694.079	492.54
694.111	517.54
694.142	626.54
694.173	626.54
694.205	698.54
694.236	732.54
694.268	767.54
694.299	816.54
694.33	893.54
694.362	884.54
694.393	898.54
694.425	745.54
694.456	669.54
694.487	717.54
694.519	704.54
694.55	697.54
694.582	631.54
694.613	568.54
694.644	550.54
694.676	435.54
694.707	445.54
694.739	314.54
694.77	464.54
694.801	536.54
694.833	386.54
694.864	263.54
694.895	229.54
694.927	268.54
694.958	286.54
694.989	304.54
695.021	303.54
695.052	193.54
695.084	238.54
695.115	176.54
695.146	225.54
695.178	118.54
695.209	195.54
695.24	152.54
695.272	117.54
695.303	134.54
695.334	171.54
695.365	168.54
695.397	141.54
695.428	124.54
695.459	105.54
695.491	77.54
695.522	167.54
695.553	119.54
695.585	176.54
695.616	135.54
695.647	117.54
695.679	124.54
695.71	112.54
695.741	120.54
695.772	150.54
695.804	145.54
695.835	32.54
695.866	13.54
695.897	54.54
695.929	80.54
695.96	95.54
695.991	124.54
696.023	58.54
696.054	4.54
696.085	104.54
696.116	114.54
696.148	122.54
696.179	24.54
696.21	97.54
696.241	61.54
696.272	75.54
696.304	-23.46
696.335	108.54
696.366	129.54
696.397	76.54
696.429	132.54
696.46	85.54
696.491	147.54
696.522	66.54
696.553	56.54
696.585	6.54
696.616	72.54
696.647	175.54
696.678	17.54
696.709	87.54
696.741	66.54
696.772	66.54
696.803	111.54
696.834	63.54
696.865	123.54
696.897	59.54
696.928	89.54
696.959	76.54
696.99	57.54
697.021	111.54
697.052	124.54
697.084	112.54
697.115	120.54
697.146	310.54
697.177	138.54
697.208	17.54
697.239	73.54
697.27	77.54
697.302	115.54
697.333	68.54
697.364	36.54
697.395	33.54
697.426	78.54
697.457	88.54
697.488	61.54
697.519	39.54
697.551	31.54
697.582	36.54
697.613	77.54
697.644	58.54
697.675	-2.46
697.706	86.54
697.737	146.54
697.768	108.54
697.799	42.54
697.831	68.54
697.862	43.54
697.893	3.54
697.924	-26.46
697.955	119.54
697.986	128.54
698.017	114.54
698.048	57.54
698.079	55.54
698.11	88.54
698.141	-4.46
698.172	139.54
698.203	59.54
698.234	9.54
698.265	54.54
698.297	30.54
698.328	58.54
698.359	73.54
698.39	40.54
698.421	64.54
698.452	24.54
698.483	144.54
698.514	62.54
698.545	90.54
698.576	19.54
698.607	183.54
698.638	90.54
698.669	86.54
698.7	-31.46
698.731	57.54
698.762	106.54
698.793	-12.46
698.824	88.54
698.855	52.54
698.886	79.54
698.917	100.54
698.948	23.54
698.979	9.54
699.01	84.54
699.041	85.54
699.072	41.54
699.103	-34.46
699.134	66.54
699.165	112.54
699.196	93.54
699.227	59.54
699.258	31.54
699.289	48.54
699.319	29.54
699.35	95.54
699.381	112.54
699.412	18.54
699.443	57.54
699.474	75.54
699.505	75.54
699.536	119.54
699.567	51.54
699.598	22.54
699.629	105.54
699.66	8.54
699.691	76.54
699.722	51.54
699.752	56.54
699.783	17.54
699.814	46.54
699.845	141.54
699.876	128.54
699.907	66.54
699.938	-6.46
699.969	86.54
700	55.54
700.031	28.54
700.061	46.54
700.092	78.54
700.123	-20.46
700.154	0.54
700.185	130.54
700.216	119.54
700.247	71.54
700.278	23.54
700.308	126.54
700.339	72.54
700.37	66.54
700.401	20.54
700.432	32.54
700.463	53.54
700.493	3.54
700.524	112.54
700.555	72.54
700.586	85.54
700.617	149.54
700.648	73.54
700.678	66.54
700.709	42.54
700.74	67.54
700.771	13.54
700.802	60.54
700.833	54.54
700.863	76.54
700.894	120.54
700.925	-27.46
700.956	49.54
700.987	70.54
701.017	98.54
701.048	66.54
701.079	66.54
701.11	114.54
701.14	109.54
701.171	88.54
701.202	49.54
701.233	64.54
701.264	84.54
701.294	68.54
701.325	-2.46
701.356	209.54
701.387	74.54
701.417	38.54
701.448	24.54
701.479	27.54
701.51	12.54
701.54	42.54
701.571	114.54
701.602	27.54
701.633	55.54
701.663	39.54
701.694	115.54
701.725	19.54
701.755	1.54
701.786	52.54
701.817	21.54
701.848	60.54
701.878	66.54
701.909	94.54
701.94	90.54
701.97	55.54
702.001	24.54
702.032	27.54
702.063	104.54
702.093	62.54
702.124	64.54
702.155	23.54
702.185	134.54
702.216	140.54
702.247	48.54
702.277	56.54
702.308	54.54
702.339	119.54
702.369	94.54
702.4	60.54
702.431	39.54
702.461	8.54
702.492	64.54
702.523	-2.46
702.553	56.54
702.584	111.54
702.615	-7.46
702.645	37.54
702.676	25.54
702.706	-1.46
702.737	63.54
702.768	95.54
702.798	140.54
702.829	60.54
702.86	-33.46
702.89	-50.46
702.921	77.54
702.951	79.54
702.982	59.54
703.013	34.54
703.043	168.54
703.074	146.54
703.104	34.54
703.135	61.54
703.166	102.54
703.196	121.54
703.227	133.54
703.257	96.54
703.288	74.54
703.318	143.54
703.349	2.54
703.38	14.54
703.41	49.54
703.441	39.54
703.471	0.54
703.502	35.54
703.532	85.54
703.563	47.54
703.593	51.54
703.624	11.54
703.655	53.54
703.685	77.54
703.716	95.54
703.746	94.54
703.777	80.54
703.807	-13.46
703.838	36.54
703.868	68.54
703.899	87.54
703.929	25.54
703.96	67.54
703.99	141.54
704.021	68.54
704.051	58.54
704.082	19.54
704.112	33.54
704.143	46.54
704.173	54.54
704.204	81.54
704.234	117.54
704.265	31.54
704.295	111.54
704.326	56.54
704.356	69.54
704.387	124.54
704.417	85.54
704.448	-36.46
704.478	60.54
704.509	47.54
704.539	20.54
704.57	102.54
704.6	53.54
704.63	40.54
704.661	-20.46
704.691	12.54
704.722	-8.46
704.752	0.54
704.783	33.54
704.813	-8.46
704.843	78.54
704.874	59.54
704.904	35.54
704.935	58.54
704.965	27.54
704.996	139.54
705.026	69.54
705.056	-8.46
705.087	119.54
705.117	73.54
705.148	141.54
705.178	63.54
705.208	83.54
705.239	66.54
705.269	95.54
705.3	121.54
705.33	80.54
705.36	83.54
705.391	36.54
705.421	37.54
705.451	56.54
705.482	87.54
705.512	92.54
705.543	51.54
705.573	139.54
705.603	103.54
705.634	47.54
705.664	16.54
705.694	-4.46
705.725	96.54
705.755	43.54
705.785	66.54
705.816	34.54
705.846	25.54
705.876	-42.46
705.907	51.54
705.937	-33.46
705.967	90.54
705.998	82.54
706.028	8.54
706.058	65.54
706.089	85.54
706.119	122.54
706.149	7.54
706.179	72.54
706.21	51.54
706.24	54.54
706.27	82.54
706.301	62.54
706.331	57.54
706.361	74.54
706.391	31.54
706.422	42.54
706.452	48.54
706.482	-12.46
706.513	23.54
706.543	56.54
706.573	-9.46
706.603	75.54
706.634	85.54
706.664	-27.46
706.694	23.54
706.724	138.54
706.755	138.54
706.785	26.54
706.815	110.54
706.845	125.54
706.876	77.54
706.906	73.54
706.936	42.54
706.966	121.54
706.996	121.54
707.027	41.54
707.057	63.54
707.087	137.54
707.117	62.54
707.148	2.54
707.178	-8.46
707.208	85.54
707.238	28.54
707.268	51.54
707.299	164.54
707.329	92.54
707.359	130.54
707.389	37.54
707.419	45.54
707.449	163.54
707.48	61.54
707.51	43.54
707.54	131.54
707.57	-32.46
707.6	-3.46
707.63	87.54
707.661	137.54
707.691	111.54
707.721	69.54
707.751	59.54
707.781	73.54
707.811	91.54
707.842	61.54
707.872	33.54
707.902	-3.46
707.932	57.54
707.962	68.54
707.992	53.54
708.022	23.54
708.052	164.54
708.083	82.54
708.113	92.54
708.143	153.54
708.173	157.54
708.203	67.54
708.233	62.54
708.263	105.54
708.293	98.54
708.323	16.54
708.353	122.54
708.384	84.54
708.414	85.54
708.444	53.54
708.474	135.54
708.504	88.54
708.534	84.54
708.564	67.54
708.594	124.54
708.624	90.54
708.654	54.54
708.684	2.54
708.714	133.54
708.744	76.54
708.774	79.54
708.804	83.54
708.835	25.54
708.865	162.54
708.895	118.54
708.925	109.54
708.955	56.54
708.985	53.54
709.015	70.54
709.045	70.54
709.075	65.54
709.105	50.54
709.135	123.54
709.165	35.54
709.195	95.54
709.225	140.54
709.255	162.54
709.285	148.54
709.315	12.54
709.345	56.54
709.375	2.54
709.405	-8.46
709.435	91.54
709.465	87.54
709.495	59.54
709.525	-2.46
709.555	46.54
709.585	137.54
709.615	46.54
709.645	42.54
709.675	55.54
709.705	59.54
709.734	2.54
709.764	73.54
709.794	51.54
709.824	46.54
709.854	27.54
709.884	57.54
709.914	-3.46
709.944	116.54
709.974	58.54
710.004	57.54
710.034	12.54
710.064	105.54
710.094	110.54
710.124	48.54
710.154	79.54
710.183	99.54
710.213	41.54
710.243	101.54
710.273	87.54
710.303	24.54
710.333	67.54
710.363	38.54
710.393	80.54
710.423	42.54
710.453	97.54
710.482	109.54
710.512	92.54
710.542	73.54
710.572	93.54
710.602	38.54
710.632	123.54
710.662	82.54
710.692	162.54
710.721	37.54
710.751	51.54
710.781	-18.46
710.811	60.54
710.841	-44.46
710.871	47.54
710.901	81.54
710.93	27.54
710.96	35.54
710.99	105.54
711.02	27.54
711.05	177.54
711.08	4.54
711.109	129.54
711.139	57.54
711.169	75.54
711.199	54.54
711.229	22.54
711.258	80.54
711.288	27.54
711.318	87.54
711.348	111.54
711.378	4.54
711.407	144.54
711.437	90.54
711.467	51.54
711.497	131.54
711.527	68.54
711.556	108.54
711.586	76.54
711.616	90.54
711.646	114.54
711.675	23.54
711.705	52.54
711.735	97.54
711.765	189.54
711.794	76.54
711.824	78.54
711.854	63.54
711.884	35.54
711.913	57.54
711.943	179.54
711.973	120.54
712.003	85.54
712.032	133.54
712.062	18.54
712.092	27.54
712.122	86.54
712.151	49.54
712.181	78.54
712.211	96.54
712.24	122.54
712.27	161.54
712.3	98.54
712.33	86.54
712.359	130.54
712.389	93.54
712.419	123.54
712.448	151.54
712.478	93.54
712.508	74.54
712.537	183.54
712.567	82.54
712.597	133.54
712.626	86.54
712.656	133.54
712.686	89.54
712.715	158.54
712.745	31.54
712.775	134.54
712.804	117.54
712.834	57.54
712.864	33.54
712.893	113.54
712.923	12.54
712.953	155.54
712.982	118.54
713.012	179.54
713.042	153.54
713.071	49.54
713.101	116.54
713.13	62.54
713.16	120.54
713.19	247.54
713.219	148.54
713.249	156.54
713.278	83.54
713.308	128.54
713.338	40.54
713.367	34.54
713.397	86.54
713.426	165.54
713.456	153.54
713.486	124.54
713.515	84.54
713.545	130.54
713.574	219.54
713.604	51.54
713.634	167.54
713.663	66.54
713.693	102.54
713.722	147.54
713.752	102.54
713.781	150.54
713.811	156.54
713.84	140.54
713.87	91.54
713.9	145.54
713.929	130.54
713.959	127.54
713.988	132.54
714.018	59.54
714.047	177.54
714.077	141.54
714.106	75.54
714.136	86.54
714.165	129.54
714.195	200.54
714.224	124.54
714.254	107.54
714.283	130.54
714.313	109.54
714.342	125.54
714.372	127.54
714.401	147.54
714.431	56.54
714.46	132.54
714.49	166.54
714.519	65.54
714.549	128.54
714.578	208.54
714.608	68.54
714.637	101.54
714.667	141.54
714.696	172.54
714.726	164.54
714.755	43.54
714.785	162.54
714.814	208.54
714.844	132.54
714.873	47.54
714.902	160.54
714.932	148.54
714.961	235.54
714.991	35.54
715.02	76.54
715.05	19.54
715.079	114.54
715.108	-21.46
715.138	90.54
715.167	93.54
715.197	64.54
715.226	114.54
715.256	172.54
715.285	56.54
715.314	60.54
715.344	132.54
715.373	115.54
715.403	194.54
715.432	67.54
715.461	62.54
715.491	4.54
715.52	23.54
715.549	242.54
715.579	117.54
715.608	101.54
715.638	85.54
715.667	104.54
715.696	15.54
715.726	110.54
715.755	192.54
715.784	133.54
715.814	256.54
715.843	125.54
715.873	110.54
715.902	137.54
715.931	107.54
715.961	190.54
715.99	89.54
716.019	104.54
716.049	104.54
716.078	61.54
716.107	33.54
716.137	128.54
716.166	69.54
716.195	124.54
716.224	49.54
716.254	96.54
716.283	47.54
716.312	29.54
716.342	135.54
716.371	82.54
716.4	119.54
716.43	89.54
716.459	147.54
716.488	107.54
716.517	110.54
716.547	126.54
716.576	117.54
716.605	150.54
716.635	165.54
716.664	52.54
716.693	117.54
716.722	87.54
716.752	77.54
716.781	98.54
716.81	16.54
716.839	68.54
716.869	130.54
716.898	127.54
716.927	109.54
716.956	76.54
716.986	141.54
717.015	61.54
717.044	39.54
717.073	23.54
717.103	94.54
717.132	60.54
717.161	160.54
717.19	143.54
717.219	138.54
717.249	166.54
717.278	156.54
717.307	122.54
717.336	63.54
717.365	38.54
717.395	161.54
717.424	135.54
717.453	62.54
717.482	81.54
717.511	25.54
717.541	125.54
717.57	-2.46
717.599	48.54
717.628	19.54
717.657	84.54
717.686	51.54
717.716	20.54
717.745	36.54
717.774	112.54
717.803	92.54
717.832	72.54
717.861	171.54
717.891	175.54
717.92	135.54
717.949	19.54
717.978	59.54
718.007	152.54
718.036	39.54
718.065	244.54
718.095	91.54
718.124	78.54
718.153	66.54
718.182	33.54
718.211	-16.46
718.24	123.54
718.269	99.54
718.298	141.54
718.327	99.54
718.357	136.54
718.386	94.54
718.415	38.54
718.444	186.54
718.473	83.54
718.502	97.54
718.531	164.54
718.56	21.54
718.589	114.54
718.618	34.54
718.647	51.54
718.676	-18.46
718.706	193.54
718.735	65.54
718.764	193.54
718.793	114.54
718.822	158.54
718.851	79.54
718.88	10.54
718.909	38.54
718.938	89.54
718.967	84.54
718.996	141.54
719.025	97.54
719.054	67.54
719.083	183.54
719.112	91.54
719.141	133.54
719.17	42.54
719.199	46.54
719.228	37.54
719.257	102.54
719.286	71.54
719.315	57.54
719.344	202.54
719.373	15.54
719.402	76.54
719.431	100.54
719.46	118.54
719.489	106.54
719.518	95.54
719.547	53.54
719.576	125.54
719.605	147.54
719.634	160.54
719.663	121.54
719.692	32.54
719.721	60.54
719.75	86.54
719.779	162.54
719.808	69.54
719.837	113.54
719.866	56.54
719.895	118.54
719.924	173.54
719.953	135.54
719.981	24.54
720.01	111.54
720.039	109.54
720.068	107.54
720.097	31.54
720.126	98.54
720.155	11.54
720.184	88.54
720.213	139.54
720.242	125.54
720.271	34.54
720.3	105.54
720.328	97.54
720.357	91.54
720.386	12.54
720.415	129.54
720.444	41.54
720.473	133.54
720.502	95.54
720.531	34.54
720.56	168.54
720.588	76.54
720.617	91.54
720.646	47.54
720.675	8.54
720.704	75.54
720.733	12.54
720.762	111.54
720.79	70.54
720.819	72.54
720.848	84.54
720.877	62.54
720.906	69.54
720.935	-25.46
720.964	65.54
720.992	95.54
721.021	86.54
721.05	75.54
721.079	84.54
721.108	30.54
721.136	80.54
721.165	72.54
721.194	20.54
721.223	179.54
721.252	80.54
721.281	176.54
721.309	110.54
721.338	83.54
721.367	41.54
721.396	143.54
721.424	33.54
721.453	11.54
721.482	176.54
721.511	137.54
721.54	82.54
721.568	179.54
721.597	107.54
721.626	20.54
721.655	81.54
721.683	120.54
721.712	162.54
721.741	85.54
721.77	165.54
721.798	162.54
721.827	212.54
721.856	89.54
721.885	105.54
721.913	74.54
721.942	159.54
721.971	83.54
722	83.54
722.028	52.54
722.057	121.54
722.086	88.54
722.114	205.54
722.143	49.54
722.172	74.54
722.201	105.54
722.229	87.54
722.258	39.54
722.287	139.54
722.315	85.54
722.344	44.54
722.373	87.54
722.402	96.54
722.43	46.54
722.459	47.54
722.488	63.54
722.516	73.54
722.545	17.54
722.574	65.54
722.602	108.54
722.631	41.54
722.66	33.54
722.688	16.54
722.717	44.54
722.746	139.54
722.774	48.54
722.803	31.54
722.831	52.54
722.86	9.54
722.889	49.54
722.917	59.54
722.946	111.54
722.975	-4.46
723.003	74.54
723.032	-28.46
723.061	23.54
723.089	43.54
723.118	89.54
723.146	72.54
723.175	106.54
723.204	107.54
723.232	84.54
723.261	118.54
723.289	46.54
723.318	49.54
723.347	76.54
723.375	176.54
723.404	117.54
723.432	115.54
723.461	60.54
723.489	70.54
723.518	51.54
723.547	52.54
723.575	93.54
723.604	27.54
723.632	108.54
723.661	94.54
723.689	64.54
723.718	28.54
723.746	-4.46
723.775	107.54
723.804	93.54
723.832	68.54
723.861	66.54
723.889	58.54
723.918	32.54
723.946	7.54
723.975	49.54
724.003	36.54
724.032	-17.46
724.06	23.54
724.089	-20.46
724.117	12.54
724.146	13.54
724.174	50.54
724.203	120.54
724.231	86.54
724.26	10.54
724.288	38.54
724.317	80.54
724.345	79.54
724.374	25.54
724.402	71.54
724.431	8.54
724.459	32.54
724.488	53.54
724.516	88.54
724.545	25.54
724.573	100.54
724.602	92.54
724.63	28.54
724.658	49.54
724.687	42.54
724.715	73.54
724.744	87.54
724.772	20.54
724.801	99.54
724.829	39.54
724.858	25.54
724.886	-3.46
724.914	102.54
724.943	55.54
724.971	143.54
725	100.54
725.028	105.54
725.057	147.54
725.085	63.54
725.113	5.54
725.142	40.54
725.17	1.54
725.199	64.54
725.227	-4.46
725.255	40.54
725.284	114.54
725.312	85.54
725.34	82.54
725.369	199.54
725.397	66.54
725.426	135.54
725.454	58.54
725.482	54.54
725.511	45.54
725.539	-10.46
725.567	22.54
725.596	109.54
725.624	88.54
725.652	119.54
725.681	160.54
725.709	107.54
725.738	57.54
725.766	104.54
725.794	44.54
725.823	-13.46
725.851	60.54
725.879	33.54
725.908	37.54
725.936	38.54
725.964	74.54
725.992	78.54
726.021	45.54
726.049	-1.46
726.077	35.54
726.106	35.54
726.134	26.54
726.162	108.54
726.191	-16.46
726.219	5.54
726.247	52.54
726.275	18.54
726.304	6.54
726.332	64.54
726.36	-12.46
726.389	22.54
726.417	70.54
726.445	91.54
726.473	50.54
726.502	128.54
726.53	94.54
726.558	48.54
726.586	78.54
726.615	16.54
726.643	10.54
726.671	92.54
726.699	18.54
726.728	51.54
726.756	59.54
726.784	84.54
726.812	59.54
726.841	105.54
726.869	9.54
726.897	-15.46
726.925	24.54
726.953	97.54
726.982	51.54
727.01	34.54
727.038	43.54
727.066	-37.46
727.094	22.54
727.123	88.54
727.151	93.54
727.179	102.54
727.207	-11.46
727.235	67.54
727.264	74.54
727.292	122.54
727.32	141.54
727.348	43.54
727.376	61.54
727.404	138.54
727.433	120.54
727.461	35.54
727.489	-6.46
727.517	5.54
727.545	51.54
727.573	45.54
727.601	83.54
727.63	66.54
727.658	11.54
727.686	68.54
727.714	69.54
727.742	84.54
727.77	11.54
727.798	41.54
727.827	111.54
727.855	127.54
727.883	33.54
727.911	64.54
727.939	38.54
727.967	13.54
727.995	83.54
728.023	38.54
728.051	93.54
728.08	65.54
728.108	96.54
728.136	104.54
728.164	74.54
728.192	115.54
728.22	82.54
728.248	49.54
728.276	80.54
728.304	144.54
728.332	12.54
728.36	119.54
728.388	57.54
728.416	31.54
728.444	9.54
728.473	92.54
728.501	119.54
728.529	95.54
728.557	30.54
728.585	70.54
728.613	30.54
728.641	117.54
728.669	124.54
728.697	110.54
728.725	104.54
728.753	38.54
728.781	62.54
728.809	15.54
728.837	115.54
728.865	105.54
728.893	52.54
728.921	117.54
728.949	106.54
728.977	90.54
729.005	27.54
729.033	93.54
729.061	41.54
729.089	92.54
729.117	2.54
729.145	128.54
729.173	121.54
729.201	108.54
729.229	89.54
729.257	31.54
729.285	21.54
729.313	-1.46
729.341	26.54
729.369	-40.46
729.397	-16.46
729.425	33.54
729.453	-104.46
729.48	38.54
729.508	126.54
729.536	-11.46
729.564	-18.46
729.592	12.54
729.62	4.54
729.648	32.54
729.676	-2.46
729.704	-28.46
729.732	11.54
729.76	-15.46
729.788	-40.46
729.816	71.54
729.844	189.54
729.871	104.54
729.899	58.54
729.927	147.54
729.955	11.54
729.983	64.54
730.011	72.54
730.039	18.54
730.067	52.54
730.095	17.54
730.122	83.54
730.15	26.54
730.178	33.54
730.206	6.54
730.234	-26.46
730.262	5.54
730.29	127.54
730.317	18.54
730.345	40.54
730.373	-19.46
730.401	20.54
730.429	62.54
730.457	12.54
730.485	37.54
730.512	36.54
730.54	127.54
730.568	-22.46
730.596	-58.46
730.624	94.54
730.652	19.54
730.679	109.54
730.707	72.54
730.735	87.54
730.763	121.54
730.791	63.54
730.818	1.54
730.846	66.54
730.874	84.54
730.902	98.54
730.93	56.54
730.957	69.54
730.985	77.54
731.013	37.54
731.041	12.54
731.069	67.54
731.096	34.54
731.124	17.54
731.152	102.54
731.18	7.54
731.207	74.54
731.235	2.54
731.263	-20.46
731.291	95.54
731.318	77.54
731.346	134.54
731.374	19.54
731.402	58.54
731.429	39.54
731.457	68.54
731.485	155.54
731.513	29.54
731.54	86.54
731.568	62.54
731.596	16.54
731.623	2.54
731.651	44.54
731.679	61.54
731.707	56.54
731.734	76.54
731.762	124.54
731.79	3.54
731.817	41.54
731.845	75.54
731.873	74.54
731.9	111.54
731.928	99.54
731.956	26.54
731.983	103.54
732.011	21.54
732.039	27.54
732.067	94.54
732.094	50.54
732.122	20.54
732.149	158.54
732.177	143.54
732.205	104.54
732.232	81.54
732.26	105.54
732.288	124.54
732.315	54.54
732.343	13.54
732.371	20.54
732.398	5.54
732.426	32.54
732.454	87.54
732.481	100.54
732.509	56.54
732.536	116.54
732.564	32.54
732.592	100.54
732.619	70.54
732.647	27.54
732.674	-20.46
732.702	17.54
732.73	40.54
732.757	73.54
732.785	51.54
732.812	208.54
732.84	13.54
732.868	25.54
732.895	63.54
732.923	70.54
732.95	-13.46
732.978	22.54
733.006	20.54
733.033	81.54
733.061	72.54
733.088	59.54
733.116	9.54
733.143	11.54
733.171	40.54
733.198	39.54
733.226	73.54
733.253	7.54
733.281	17.54
733.309	56.54
733.336	16.54
733.364	84.54
733.391	22.54
733.419	15.54
733.446	65.54
733.474	-24.46
733.501	56.54
733.529	95.54
733.556	50.54
733.584	71.54
733.611	95.54
733.639	75.54
733.666	104.54
733.694	75.54
733.721	81.54
733.749	21.54
733.776	-28.46
733.804	117.54
733.831	41.54
733.859	36.54
733.886	57.54
733.914	9.54
733.941	11.54
733.969	108.54
733.996	133.54
734.023	29.54
734.051	15.54
734.078	73.54
734.106	25.54
734.133	-16.46
734.161	98.54
734.188	11.54
734.216	85.54
734.243	84.54
734.27	73.54
734.298	-44.46
734.325	55.54
734.353	-19.46
734.38	32.54
734.408	23.54
734.435	52.54
734.462	12.54
734.49	56.54
734.517	23.54
734.545	26.54
734.572	150.54
734.599	30.54
734.627	36.54
734.654	24.54
734.682	75.54
734.709	67.54
734.736	9.54
734.764	20.54
734.791	34.54
734.818	45.54
734.846	97.54
734.873	2.54
734.901	69.54
734.928	54.54
734.955	71.54
734.983	13.54
735.01	140.54
735.037	22.54
735.065	-23.46
735.092	47.54
735.119	65.54
735.147	46.54
735.174	132.54
735.201	59.54
735.229	81.54
735.256	20.54
735.283	40.54
735.311	-23.46
735.338	11.54
735.365	1.54
735.393	58.54
735.42	16.54
735.447	-40.46
735.474	-8.46
735.502	61.54
735.529	-18.46
735.556	86.54
735.584	-32.46
735.611	103.54
735.638	16.54
735.665	100.54
735.693	136.54
735.72	32.54
735.747	-15.46
735.775	56.54
735.802	1.54
735.829	-27.46
735.856	-5.46
735.884	-29.46
735.911	-30.46
735.938	33.54
735.965	21.54
735.993	40.54
736.02	79.54
736.047	101.54
736.074	-31.46
736.101	5.54
736.129	76.54
736.156	-35.46
736.183	64.54
736.21	47.54
736.238	52.54
736.265	37.54
736.292	42.54
736.319	-35.46
736.346	54.54
736.374	11.54
736.401	-0.46
736.428	36.54
736.455	120.54
736.482	45.54
736.51	49.54
736.537	43.54
736.564	59.54
736.591	183.54
736.618	104.54
736.645	55.54
736.673	59.54
736.7	41.54
736.727	27.54
736.754	-31.46
736.781	0.54
736.808	-33.46
736.836	-6.46
736.863	-11.46
736.89	-14.46
736.917	0.54
736.944	-10.46
736.971	-4.46
736.998	-23.46
737.026	48.54
737.053	18.54
737.08	44.54
737.107	-31.46
737.134	-46.46
737.161	-12.46
737.188	180.54
737.215	103.54
737.242	80.54
737.27	-56.46
737.297	-43.46
737.324	13.54
737.351	73.54
737.378	53.54
737.405	58.54
737.432	61.54
737.459	11.54
737.486	18.54
737.513	49.54
737.54	13.54
737.568	38.54
737.595	-55.46
737.622	-40.46
737.649	72.54
737.676	129.54
737.703	-11.46
737.73	27.54
737.757	-76.46
737.784	103.54
737.811	89.54
737.838	45.54
737.865	19.54
737.892	132.54
737.919	23.54
737.946	56.54
737.973	16.54
738	54.54
738.027	17.54
738.054	46.54
738.081	24.54
738.108	28.54
738.135	11.54
738.162	66.54
738.189	39.54
738.216	36.54
738.243	62.54
738.27	72.54
738.297	17.54
738.324	66.54
738.351	59.54
738.378	104.54
738.405	117.54
738.432	74.54
738.459	29.54
738.486	1.54
738.513	59.54
738.54	21.54
738.567	44.54
738.594	45.54
738.621	-8.46
738.648	115.54
738.675	21.54
738.702	44.54
738.729	-31.46
738.756	43.54
738.783	55.54
738.809	95.54
738.836	65.54
738.863	4.54
738.89	-19.46
738.917	-42.46
738.944	-40.46
738.971	60.54
738.998	79.54
739.025	139.54
739.052	140.54
739.079	35.54
739.105	5.54
739.132	19.54
739.159	-9.46
739.186	114.54
739.213	154.54
739.24	63.54
739.267	43.54
739.294	32.54
739.321	8.54
739.347	50.54
739.374	-8.46
739.401	32.54
739.428	37.54
739.455	0.54
739.482	22.54
739.509	25.54
739.535	21.54
739.562	-34.46
739.589	-21.46
739.616	-11.46
739.643	2.54
739.67	38.54
739.696	49.54
739.723	15.54
739.75	25.54
739.777	63.54
739.804	36.54
739.831	128.54
739.857	115.54
739.884	123.54
739.911	93.54
739.938	89.54
739.965	61.54
739.991	13.54
740.018	28.54
740.045	-11.46
740.072	50.54
740.099	37.54
740.125	9.54
740.152	49.54
740.179	40.54
740.206	39.54
740.233	56.54
740.259	98.54
740.286	20.54
740.313	7.54
740.34	-59.46
740.366	7.54
740.393	52.54
740.42	44.54
740.447	26.54
740.473	11.54
740.5	-23.46
740.527	17.54
740.554	49.54
740.58	41.54
740.607	15.54
740.634	21.54
740.66	50.54
740.687	71.54
740.714	8.54
740.741	53.54
740.767	16.54
740.794	87.54
740.821	-30.46
740.847	7.54
740.874	62.54
740.901	40.54
740.928	44.54
740.954	81.54
740.981	22.54
741.008	146.54
741.034	26.54
741.061	17.54
741.088	112.54
741.114	38.54
741.141	57.54
741.168	63.54
741.194	43.54
741.221	-5.46
741.248	-58.46
741.274	24.54
741.301	57.54
741.328	56.54
741.354	59.54
741.381	57.54
741.408	85.54
741.434	71.54
741.461	13.54
741.487	-17.46
741.514	11.54
741.541	50.54
741.567	62.54
741.594	92.54
741.621	-1.46
741.647	17.54
741.674	24.54
741.7	63.54
741.727	54.54
741.754	66.54
741.78	65.54
741.807	48.54
741.833	103.54
741.86	49.54
741.887	27.54
741.913	-11.46
741.94	19.54
741.966	50.54
741.993	49.54
742.019	89.54
742.046	63.54
742.073	47.54
742.099	70.54
742.126	-5.46
742.152	72.54
742.179	134.54
742.205	16.54
742.232	24.54
742.258	90.54
742.285	124.54
742.311	4.54
742.338	54.54
742.365	8.54
742.391	58.54
742.418	44.54
742.444	35.54
742.471	108.54
742.497	30.54
742.524	10.54
742.55	20.54
742.577	58.54
742.603	38.54
742.63	-2.46
742.656	11.54
742.683	76.54
742.709	75.54
742.736	96.54
742.762	41.54
742.789	-38.46
742.815	-18.46
742.842	64.54
742.868	-9.46
742.895	-18.46
742.921	3.54
742.947	18.54
742.974	49.54
743	64.54
743.027	76.54
743.053	-23.46
743.08	33.54
743.106	1.54
743.133	28.54
743.159	44.54
743.186	78.54
743.212	71.54
743.238	-31.46
743.265	-39.46
743.291	23.54
743.318	30.54
743.344	-26.46
743.371	-31.46
743.397	-53.46
743.423	-10.46
743.45	59.54
743.476	58.54
743.503	90.54
743.529	82.54
743.555	152.54
743.582	70.54
743.608	84.54
743.635	74.54
743.661	17.54
743.687	45.54
743.714	65.54
743.74	18.54
743.766	27.54
743.793	17.54
743.819	7.54
743.846	2.54
743.872	65.54
743.898	48.54
743.925	39.54
743.951	48.54
743.977	118.54
744.004	127.54
744.03	59.54
744.056	40.54
744.083	34.54
744.109	17.54
744.135	26.54
744.162	-19.46
744.188	4.54
744.214	4.54
744.241	-4.46
744.267	-45.46
744.293	-8.46
744.32	-17.46
744.346	-35.46
744.372	52.54
744.398	66.54
744.425	52.54
744.451	-33.46
744.477	40.54
744.504	94.54
744.53	24.54
744.556	72.54
744.582	70.54
744.609	-15.46
744.635	41.54
744.661	14.54
744.688	9.54
744.714	53.54
744.74	8.54
744.766	-54.46
744.793	-24.46
744.819	0.54
744.845	-96.46
744.871	35.54
744.898	-36.46
744.924	25.54
744.95	46.54
744.976	45.54
745.003	68.54
745.029	-6.46
745.055	-14.46
745.081	-0.46
745.107	8.54
745.134	-19.46
745.16	-21.46
745.186	109.54
745.212	39.54
745.238	18.54
745.265	32.54
745.291	-7.46
745.317	-29.46
745.343	-62.46
745.369	64.54
745.396	83.54
745.422	61.54
745.448	33.54
745.474	-5.46
745.5	78.54
745.526	19.54
745.553	19.54
745.579	76.54
745.605	96.54
745.631	5.54
745.657	-2.46
745.683	75.54
745.71	22.54
745.736	82.54
745.762	63.54
745.788	28.54
745.814	150.54
745.84	27.54
745.866	35.54
745.893	43.54
745.919	61.54
745.945	-7.46
745.971	-31.46
745.997	55.54
746.023	53.54
746.049	-14.46
746.075	47.54
746.101	-33.46
746.128	79.54
746.154	40.54
746.18	5.54
746.206	37.54
746.232	14.54
746.258	73.54
746.284	-56.46
746.31	-29.46
746.336	27.54
746.362	-18.46
746.388	2.54
746.414	13.54
746.441	-1.46
746.467	13.54
746.493	56.54
746.519	86.54
746.545	17.54
746.571	-21.46
746.597	101.54
746.623	8.54
746.649	52.54
746.675	54.54
746.701	84.54
746.727	10.54
746.753	88.54
746.779	28.54
746.805	-8.46
746.831	0.54
746.857	68.54
746.883	-28.46
746.909	-15.46
746.935	-44.46
746.961	-42.46
746.987	86.54
747.013	38.54
747.039	-52.46
747.065	80.54
747.091	40.54
747.117	-44.46
747.143	65.54
747.169	0.54
747.195	86.54
747.221	13.54
747.247	69.54
747.273	91.54
747.299	59.54
747.325	-22.46
747.351	53.54
747.377	-62.46
747.403	-6.46
747.429	-0.46
747.455	41.54
747.481	11.54
747.507	-7.46
747.532	-119.46
747.558	-34.46
747.584	91.54
747.61	48.54
747.636	70.54
747.662	23.54
747.688	28.54
747.714	-0.46
747.74	21.54
747.766	-57.46
747.792	18.54
747.818	50.54
747.844	62.54
747.869	83.54
747.895	100.54
747.921	44.54
747.947	29.54
747.973	-0.46
747.999	152.54
748.025	0.54
748.051	49.54
748.076	-47.46
748.102	43.54
748.128	47.54
748.154	-5.46
748.18	56.54
748.206	81.54
748.232	7.54
748.258	-27.46
748.283	118.54
748.309	80.54
748.335	74.54
748.361	82.54
748.387	93.54
748.413	94.54
748.438	109.54
748.464	60.54
748.49	-60.46
748.516	20.54
748.542	-62.46
748.568	-24.46
748.593	39.54
748.619	53.54
748.645	40.54
748.671	80.54
748.697	45.54
748.722	35.54
748.748	-5.46
748.774	-26.46
748.8	65.54
748.826	-13.46
748.851	31.54
748.877	-42.46
748.903	-24.46
748.929	81.54
748.954	57.54
748.98	66.54
749.006	31.54
749.032	35.54
749.057	11.54
749.083	3.54
749.109	1.54
749.135	80.54
749.16	11.54
749.186	-6.46
749.212	-12.46
749.238	-64.46
749.263	-67.46
749.289	-63.46
749.315	-48.46
749.341	-13.46
749.366	-69.46
749.392	18.54
749.418	48.54
749.443	-22.46
749.469	42.54
749.495	110.54
749.521	25.54
749.546	-25.46
749.572	44.54
749.598	44.54
749.623	-22.46
749.649	95.54
749.675	49.54
749.7	-26.46
749.726	-9.46
749.752	-54.46
749.777	-4.46
749.803	61.54
749.829	77.54
749.854	95.54
749.88	-8.46
749.906	55.54
749.931	101.54
749.957	6.54
749.983	-11.46
750.008	-5.46
750.034	10.54
750.06	74.54
750.085	-48.46
750.111	71.54
750.137	13.54
750.162	24.54
750.188	-0.46
750.213	-21.46
750.239	-44.46
750.265	28.54
750.29	-29.46
750.316	28.54
750.342	54.54
750.367	66.54
750.393	74.54
750.418	-38.46
750.444	55.54
750.47	47.54
750.495	24.54
750.521	63.54
750.546	11.54
750.572	49.54
750.597	59.54
750.623	29.54
750.649	79.54
750.674	83.54
750.7	66.54
750.725	2.54
750.751	11.54
750.776	-4.46
750.802	-2.46
750.827	20.54
750.853	15.54
750.879	35.54
750.904	-49.46
750.93	16.54
750.955	-27.46
750.981	55.54
751.006	15.54
751.032	3.54
751.057	-38.46
751.083	43.54
751.108	-92.46
751.134	4.54
751.159	83.54
751.185	25.54
751.21	12.54
751.236	33.54
751.261	-53.46
751.287	-35.46
751.312	-41.46
751.338	9.54
751.363	23.54
751.389	-20.46
751.414	23.54
751.44	52.54
751.465	42.54
751.491	73.54
751.516	29.54
751.542	-32.46
751.567	21.54
751.593	25.54
751.618	-16.46
751.643	-36.46
751.669	-31.46
751.694	-27.46
751.72	10.54
751.745	76.54
751.771	26.54
751.796	4.54
751.822	58.54
751.847	189.54
751.872	29.54
751.898	-31.46
751.923	-16.46
751.949	87.54
751.974	27.54
751.999	-19.46
752.025	36.54
752.05	3.54
752.076	-41.46
752.101	45.54
752.126	13.54
752.152	32.54
752.177	12.54
752.203	-11.46
752.228	13.54
752.253	100.54
752.279	-0.46
752.304	-19.46
752.33	63.54
752.355	-26.46
752.38	72.54
752.406	65.54
752.431	69.54
752.456	72.54
752.482	-45.46
752.507	-74.46
752.532	0.54
752.558	91.54
752.583	-19.46
752.608	-29.46
752.634	-1.46
752.659	5.54
752.684	37.54
752.71	57.54
752.735	3.54
752.76	51.54
752.786	22.54
752.811	31.54
752.836	-15.46
752.862	-30.46
752.887	34.54
752.912	89.54
752.938	-22.46
752.963	-40.46
752.988	-25.46
753.013	20.54
753.039	-47.46
753.064	85.54
753.089	-17.46
753.115	120.54
753.14	0.54
753.165	61.54
753.19	84.54
753.216	55.54
753.241	-55.46
753.266	51.54
753.291	-29.46
753.317	-16.46
753.342	-2.46
753.367	-27.46
753.392	41.54
753.418	-30.46
753.443	-5.46
753.468	71.54
753.493	-46.46
753.519	23.54
753.544	8.54
753.569	32.54
753.594	11.54
753.619	69.54
753.645	54.54
753.67	14.54
753.695	31.54
753.72	148.54
753.745	90.54
753.771	-16.46
753.796	-44.46
753.821	-20.46
753.846	-17.46
753.871	-17.46
753.897	16.54
753.922	45.54
753.947	-27.46
753.972	90.54
753.997	3.54
754.022	59.54
754.048	21.54
754.073	100.54
754.098	-18.46
754.123	70.54
754.148	-19.46
754.173	40.54
754.199	45.54
754.224	46.54
754.249	32.54
754.274	66.54
754.299	14.54
754.324	-8.46
754.349	-11.46
754.374	83.54
754.4	83.54
754.425	-11.46
754.45	12.54
754.475	-1.46
754.5	-2.46
754.525	48.54
754.55	7.54
754.575	98.54
754.6	40.54
754.626	19.54
754.651	48.54
754.676	10.54
754.701	6.54
754.726	75.54
754.751	76.54
754.776	26.54
754.801	0.54
754.826	67.54
754.851	13.54
754.876	48.54
754.901	42.54
754.926	11.54
754.951	64.54
754.977	53.54
755.002	17.54
755.027	-23.46
755.052	-54.46
755.077	32.54
755.102	15.54
755.127	-18.46
755.152	44.54
755.177	-20.46
755.202	-14.46
755.227	1.54
755.252	6.54
755.277	50.54
755.302	-16.46
755.327	-2.46
755.352	-16.46
755.377	8.54
755.402	-13.46
755.427	24.54
755.452	53.54
755.477	28.54
755.502	-64.46
755.527	46.54
755.552	67.54
755.577	-0.46
755.602	-70.46
755.627	71.54
755.652	1.54
755.677	89.54
755.702	19.54
755.727	26.54
755.752	69.54
755.777	55.54
755.802	16.54
755.826	105.54
755.851	83.54
755.876	89.54
755.901	74.54
755.926	54.54
755.951	-31.46
755.976	-5.46
756.001	16.54
756.026	-20.46
756.051	-4.46
756.076	41.54
756.101	9.54
756.126	-22.46
756.15	-95.46
756.175	-57.46
756.2	-7.46
756.225	25.54
756.25	-12.46
756.275	97.54
756.3	-35.46
756.325	67.54
756.35	-2.46
756.375	56.54
756.399	-10.46
756.424	-53.46
756.449	81.54
756.474	-30.46
756.499	70.54
756.524	44.54
756.549	-27.46
756.573	50.54
756.598	-2.46
756.623	15.54
756.648	18.54
756.673	6.54
756.698	6.54
756.723	-23.46
756.747	24.54
756.772	19.54
756.797	41.54
756.822	62.54
756.847	101.54
756.871	30.54
756.896	-0.46
756.921	39.54
756.946	42.54
756.971	36.54
756.996	-80.46
757.02	-20.46
757.045	38.54
757.07	-51.46
757.095	17.54
757.12	50.54
757.144	80.54
757.169	65.54
757.194	0.54
757.219	107.54
757.243	-26.46
757.268	-18.46
757.293	-31.46
757.318	-28.46
757.342	-12.46
757.367	1.54
757.392	43.54
757.417	59.54
757.441	26.54
757.466	70.54
757.491	47.54
757.516	20.54
757.54	-38.46
757.565	-40.46
757.59	-13.46
757.615	-32.46
757.639	-18.46
757.664	55.54
757.689	77.54
757.714	-3.46
757.738	-6.46
757.763	-27.46
757.788	-13.46
757.812	-22.46
757.837	-53.46
757.862	64.54
757.886	39.54
757.911	33.54
757.936	31.54
757.961	52.54
757.985	-38.46
758.01	1.54
758.035	-16.46
758.059	-66.46
758.084	0.54
758.109	87.54
758.133	19.54
758.158	44.54
758.183	79.54
758.207	31.54
758.232	-69.46
758.256	18.54
758.281	-28.46
758.306	105.54
758.33	-90.46
758.355	9.54
758.38	-8.46
758.404	3.54
758.429	-11.46
758.454	73.54
758.478	-78.46
758.503	-59.46
758.527	-18.46
758.552	-65.46
758.577	-13.46
758.601	48.54
758.626	-19.46
758.65	28.54
758.675	19.54
758.7	12.54
758.724	38.54
758.749	26.54
758.773	70.54
758.798	-27.46
758.823	38.54
758.847	28.54
758.872	-40.46
758.896	20.54
758.921	-10.46
758.945	19.54
758.97	-36.46
758.995	-14.46
759.019	20.54
759.044	-58.46
759.068	-4.46
759.093	46.54
759.117	-13.46
759.142	14.54
759.166	20.54
759.191	38.54
759.215	-32.46
759.24	20.54
759.264	-43.46
759.289	-8.46
759.313	-19.46
759.338	-54.46
759.363	-44.46
759.387	-52.46
759.412	-5.46
759.436	32.54
759.461	7.54
759.485	17.54
759.51	57.54
759.534	-0.46
759.558	-47.46
759.583	-16.46
759.607	92.54
759.632	-32.46
759.656	-25.46
759.681	-41.46
759.705	-37.46
759.73	49.54
759.754	0.54
759.779	35.54
759.803	15.54
759.828	28.54
759.852	-16.46
759.877	122.54
759.901	101.54
759.925	4.54
759.95	-0.46
759.974	-57.46
759.999	-11.46
760.023	0.54
760.048	-65.46
760.072	46.54
760.096	-7.46
760.121	-26.46
760.145	-27.46
760.17	32.54
760.194	41.54
760.218	87.54
760.243	54.54
760.267	-47.46
760.292	27.54
760.316	15.54
760.34	132.54
760.365	32.54
760.389	6.54
760.414	33.54
760.438	-52.46
760.462	-10.46
760.487	8.54
760.511	37.54
760.535	-13.46
760.56	28.54
760.584	-26.46
760.608	-43.46
760.633	5.54
760.657	5.54
760.682	-11.46
760.706	59.54
760.73	71.54
760.755	-27.46
760.779	-18.46
760.803	87.54
760.828	-2.46
760.852	-16.46
760.876	7.54
760.901	-58.46
760.925	12.54
760.949	-45.46
760.973	-9.46
760.998	16.54
761.022	-5.46
761.046	-18.46
761.071	19.54
761.095	11.54
761.119	-71.46
761.144	89.54
761.168	2.54
761.192	-6.46
761.216	-15.46
761.241	-0.46
761.265	-18.46
761.289	-55.46
761.313	-7.46
761.338	46.54
761.362	2.54
761.386	-16.46
761.41	51.54
761.435	38.54
761.459	-23.46
761.483	-23.46
761.507	9.54
761.532	56.54
761.556	-47.46
761.58	52.54
761.604	-10.46
761.629	-28.46
761.653	15.54
761.677	89.54
761.701	29.54
761.725	16.54
761.75	57.54
761.774	83.54
761.798	26.54
761.822	16.54
761.847	-56.46
761.871	-16.46
761.895	-43.46
761.919	-14.46
761.943	-42.46
761.967	-13.46
761.992	-73.46
762.016	-63.46
762.04	-79.46
762.064	-41.46
762.088	-24.46
762.112	-17.46
762.137	-24.46
762.161	60.54
762.185	31.54
762.209	-52.46
762.233	9.54
762.257	86.54
762.282	10.54
762.306	37.54
762.33	-31.46
762.354	85.54
762.378	57.54
762.402	-35.46
762.426	-42.46
762.45	50.54
762.475	31.54
762.499	-7.46
762.523	-12.46
762.547	-17.46
762.571	-49.46
762.595	-11.46
762.619	37.54
762.643	-56.46
762.667	-20.46
762.692	-35.46
762.716	-31.46
762.74	39.54
762.764	43.54
762.788	-42.46
762.812	55.54
762.836	63.54
762.86	-0.46
762.884	5.54
762.908	-24.46
762.932	37.54
762.956	48.54
762.98	-9.46
763.004	-16.46
763.028	49.54
763.053	28.54
763.077	47.54
763.101	2.54
763.125	-5.46
763.149	-64.46
763.173	-27.46
763.197	-7.46
763.221	-4.46
763.245	-28.46
763.269	41.54
763.293	43.54
763.317	69.54
763.341	-1.46
763.365	-4.46
763.389	37.54
763.413	10.54
763.437	59.54
763.461	28.54
763.485	64.54
763.509	-52.46
763.533	-115.46
763.557	33.54
763.581	27.54
763.605	-18.46
763.629	14.54
763.653	5.54
763.677	19.54
763.701	9.54
763.725	-65.46
763.748	-44.46
763.772	-8.46
763.796	47.54
763.82	29.54
763.844	59.54
763.868	39.54
763.892	46.54
763.916	21.54
763.94	45.54
763.964	-19.46
763.988	2.54
764.012	-12.46
764.036	-52.46
764.06	23.54
764.084	5.54
764.107	-36.46
764.131	15.54
764.155	21.54
764.179	49.54
764.203	-47.46
764.227	13.54
764.251	-14.46
764.275	3.54
764.299	-18.46
764.322	-70.46
764.346	-25.46
764.37	-6.46
764.394	0.54
764.418	9.54
764.442	101.54
764.466	1.54
764.49	75.54
764.513	-5.46
764.537	23.54
764.561	46.54
764.585	-56.46
764.609	-8.46
764.633	-54.46
764.657	-47.46
764.68	20.54
764.704	-48.46
764.728	18.54
764.752	16.54
764.776	-88.46
764.799	-43.46
764.823	-26.46
764.847	-77.46
764.871	-12.46
764.895	46.54
764.919	-48.46
764.942	40.54
764.966	-26.46
764.99	-4.46
765.014	22.54
765.038	31.54
765.061	76.54
765.085	-13.46
765.109	27.54
765.133	-29.46
765.156	20.54
765.18	-37.46
765.204	-39.46
765.228	-11.46
765.251	-6.46
765.275	-47.46
765.299	-5.46
765.323	43.54
765.346	-29.46
765.37	-28.46
765.394	-47.46
765.418	4.54
765.441	-68.46
765.465	10.54
765.489	-18.46
765.513	13.54
765.536	-13.46
765.56	-27.46
765.584	29.54
765.608	83.54
765.631	-79.46
765.655	-53.46
765.679	-56.46
765.702	79.54
765.726	-44.46
765.75	-2.46
765.773	9.54
765.797	-15.46
765.821	18.54
765.845	-24.46
765.868	50.54
765.892	34.54
765.916	19.54
765.939	-4.46
765.963	-18.46
765.987	2.54
766.01	53.54
766.034	48.54
766.058	5.54
766.081	64.54
766.105	-11.46
766.128	27.54
766.152	18.54
766.176	106.54
766.199	7.54
766.223	24.54
766.247	28.54
766.27	-7.46
766.294	-59.46
766.318	-35.46
766.341	-0.46
766.365	16.54
766.388	-42.46
766.412	42.54
766.436	-8.46
766.459	17.54
766.483	14.54
766.506	-11.46
766.53	77.54
766.554	4.54
766.577	42.54
766.601	27.54
766.624	-49.46
766.648	-14.46
766.672	-25.46
766.695	-66.46
766.719	44.54
766.742	-29.46
766.766	29.54
766.789	104.54
766.813	8.54
766.836	-111.46
766.86	84.54
766.884	0.54
766.907	-8.46
766.931	5.54
766.954	-88.46
766.978	56.54
767.001	25.54
767.025	-29.46
767.048	34.54
767.072	32.54
767.095	-56.46
767.119	-12.46
767.142	-69.46
767.166	25.54
767.189	50.54
767.213	-2.46
767.236	-15.46
767.26	-1.46
767.283	13.54
767.307	7.54
767.33	-21.46
767.354	88.54
767.377	-11.46
767.401	23.54
767.424	-30.46
767.448	54.54
767.471	-35.46
767.495	24.54
767.518	31.54
767.542	44.54
767.565	-47.46
767.589	11.54
767.612	-18.46
767.636	-8.46
767.659	-38.46
767.682	-16.46
767.706	33.54
767.729	-6.46
767.753	-32.46
767.776	-20.46
767.8	-10.46
767.823	-46.46
767.846	-6.46
767.87	-28.46
767.893	27.54
767.917	6.54
767.94	-28.46
767.964	-5.46
767.987	-13.46
768.01	-36.46
768.034	-41.46
768.057	-55.46
768.081	-36.46
768.104	-55.46
768.127	-37.46
768.151	-31.46
768.174	-11.46
768.197	-66.46
768.221	-30.46
768.244	40.54
768.268	13.54
768.291	-12.46
768.314	7.54
768.338	20.54
768.361	52.54
768.384	17.54
768.408	29.54
768.431	9.54
768.454	75.54
768.478	36.54
768.501	43.54
768.524	64.54
768.548	-0.46
768.571	-45.46
768.594	-89.46
768.618	-19.46
768.641	33.54
768.664	9.54
768.688	2.54
768.711	-66.46
768.734	-34.46
768.758	-22.46
768.781	-56.46
768.804	19.54
768.827	-61.46
768.851	-30.46
768.874	12.54
768.897	7.54
768.921	-60.46
768.944	-3.46
768.967	29.54
768.99	10.54
769.014	-61.46
769.037	-25.46
769.06	8.54
769.083	34.54
769.107	32.54
769.13	-26.46
769.153	-21.46
769.176	4.54
769.2	-11.46
769.223	-18.46
769.246	-57.46
769.269	22.54
769.293	-9.46
769.316	25.54
769.339	-8.46
769.362	-34.46
769.386	-112.46
769.409	8.54
769.432	-11.46
769.455	51.54
769.478	-60.46
769.502	-18.46
769.525	-72.46
769.548	-6.46
769.571	-120.46
769.594	-7.46
769.618	-31.46
769.641	-4.46
769.664	-127.46
769.687	79.54
769.71	-79.46
769.733	-36.46
769.757	-53.46
769.78	-18.46
769.803	-68.46
769.826	-38.46
769.849	12.54
769.872	-12.46
769.896	-40.46
769.919	-6.46
769.942	-43.46
769.965	35.54
769.988	-6.46
770.011	-4.46
770.034	-91.46
770.058	-79.46
770.081	-91.46
770.104	51.54
770.127	-48.46
770.15	-32.46
770.173	-14.46
770.196	39.54
770.219	-29.46
770.242	-26.46
770.266	-11.46
770.289	32.54
770.312	10.54
770.335	37.54
770.358	63.54
770.381	-29.46
770.404	3.54
770.427	4.54
770.45	48.54
770.473	16.54
770.496	-4.46
770.519	47.54
770.543	34.54
770.566	139.54
770.589	3.54
770.612	-20.46
770.635	-88.46
770.658	-49.46
770.681	10.54
770.704	-27.46
770.727	41.54
770.75	12.54
770.773	-73.46
770.796	-46.46
770.819	-32.46
770.842	2.54
770.865	12.54
770.888	-32.46
770.911	-21.46
770.934	10.54
770.957	-12.46
770.98	-28.46
771.003	-21.46
771.026	-55.46
771.049	-68.46
771.072	105.54
771.095	74.54
771.118	88.54
771.141	52.54
771.164	-27.46
771.187	-60.46
771.21	2.54
771.233	81.54
771.256	4.54
771.279	2.54
771.302	-28.46
771.325	18.54
771.348	-34.46
771.371	76.54
771.394	8.54
771.417	3.54
771.44	4.54
771.463	-25.46
771.485	92.54
771.508	22.54
771.531	20.54
771.554	-46.46
771.577	-13.46
771.6	-85.46
771.623	-15.46
771.646	37.54
771.669	-4.46
771.692	-54.46
771.715	-20.46
771.738	-98.46
771.761	-3.46
771.783	-78.46
771.806	38.54
771.829	53.54
771.852	40.54
771.875	6.54
771.898	9.54
771.921	-55.46
771.944	-12.46
771.966	-52.46
771.989	-59.46
772.012	-14.46
772.035	64.54
772.058	-20.46
772.081	29.54
772.104	48.54
772.126	32.54
772.149	-7.46
772.172	-16.46
772.195	18.54
772.218	8.54
772.241	-13.46
772.264	-39.46
772.286	-2.46
772.309	-24.46
772.332	-55.46
772.355	-21.46
772.378	-37.46
772.4	-42.46
772.423	17.54
772.446	55.54
772.469	-0.46
772.492	37.54
772.514	79.54
772.537	36.54
772.56	40.54
772.583	22.54
772.606	54.54
772.628	67.54
772.651	-43.46
772.674	-42.46
772.697	-69.46
772.72	57.54
772.742	-90.46
772.765	-35.46
772.788	-21.46
772.811	-81.46
772.833	6.54
772.856	-0.46
772.879	-22.46
772.902	-10.46
772.924	-35.46
772.947	96.54
772.97	4.54
772.992	-60.46
773.015	-58.46
773.038	-6.46
773.061	51.54
773.083	29.54
773.106	-32.46
773.129	-1.46
773.152	-45.46
773.174	-35.46
773.197	-47.46
773.22	-16.46
773.242	-24.46
773.265	-10.46
773.288	-102.46
773.31	-55.46
773.333	-48.46
773.356	38.54
773.378	-57.46
773.401	-43.46
773.424	-39.46
773.446	-14.46
773.469	-42.46
773.492	-28.46
773.514	-36.46
773.537	-20.46
773.56	-51.46
773.582	-31.46
773.605	-76.46
773.628	13.54
773.65	63.54
773.673	22.54
773.696	14.54
773.718	32.54
773.741	-24.46
773.764	-54.46
773.786	-37.46
773.809	2.54
773.831	-38.46
773.854	-62.46
773.877	-72.46
773.899	8.54
773.922	-40.46
773.944	26.54
773.967	45.54
773.99	51.54
774.012	-23.46
774.035	74.54
774.057	-41.46
774.08	-73.46
774.103	20.54
774.125	-40.46
774.148	103.54
774.17	-47.46
774.193	33.54
774.215	36.54
774.238	-8.46
774.261	9.54
774.283	-28.46
774.306	24.54
774.328	-48.46
774.351	-14.46
774.373	4.54
774.396	84.54
774.418	9.54
774.441	26.54
774.463	46.54
774.486	-24.46
774.509	-14.46
774.531	16.54
774.554	7.54
774.576	5.54
774.599	-45.46
774.621	-94.46
774.644	-37.46
774.666	-21.46
774.689	-19.46
774.711	-81.46
774.734	-39.46
774.756	-7.46
774.779	121.54
774.801	-4.46
774.824	-45.46
774.846	-19.46
774.868	-57.46
774.891	-54.46
774.913	-55.46
774.936	-10.46
774.958	13.54
774.981	-11.46
775.003	-108.46
775.026	16.54
775.048	-54.46
775.071	47.54
775.093	-18.46
775.115	-4.46
775.138	-42.46
775.16	49.54
775.183	-10.46
775.205	-38.46
775.228	6.54
775.25	-10.46
775.272	-94.46
775.295	12.54
775.317	30.54
775.34	-56.46
775.362	-0.46
775.385	20.54
775.407	32.54
775.429	-54.46
775.452	-30.46
775.474	24.54
775.496	-50.46
775.519	-73.46
775.541	-11.46
775.564	-46.46
775.586	-0.46
775.608	-22.46
775.631	-18.46
775.653	10.54
775.675	-43.46
775.698	-54.46
775.72	-0.46
775.743	-26.46
775.765	-58.46
775.787	16.54
775.81	-45.46
775.832	3.54
775.854	-22.46
775.877	-6.46
775.899	-9.46
775.921	35.54
775.944	38.54
775.966	81.54
775.988	-48.46
776.011	-18.46
776.033	-26.46
776.055	-43.46
776.077	14.54
776.1	-12.46
776.122	-84.46
776.144	32.54
776.167	-31.46
776.189	-2.46
776.211	-110.46
776.234	-23.46
776.256	-31.46
776.278	9.54
776.3	2.54
776.323	129.54
776.345	15.54
776.367	-10.46
776.389	31.54
776.412	4.54
776.434	65.54
776.456	-5.46
776.478	-18.46
776.501	39.54
776.523	-51.46
776.545	23.54
776.567	-44.46
776.59	23.54
776.612	-20.46
776.634	-35.46
776.656	-87.46
776.679	-41.46
776.701	-52.46
776.723	30.54
776.745	0.54
776.767	-42.46
776.79	-22.46
776.812	-48.46
776.834	-76.46
776.856	-111.46
776.878	-23.46
776.901	52.54
776.923	-17.46
776.945	-26.46
776.967	-28.46
776.989	7.54
777.012	-98.46
777.034	-16.46
777.056	-19.46
777.078	-52.46
777.1	-65.46
777.122	-37.46
777.145	-34.46
777.167	-12.46
777.189	-36.46
777.211	-0.46
777.233	-43.46
777.255	-75.46
777.277	-80.46
777.3	-47.46
777.322	-52.46
777.344	-73.46
777.366	-84.46
777.388	-35.46
777.41	-36.46
777.432	-10.46
777.454	-60.46
777.477	-44.46
777.499	-63.46
777.521	-31.46
777.543	-33.46
777.565	46.54
777.587	-35.46
777.609	61.54
777.631	17.54
777.653	-38.46
777.675	-108.46
777.697	40.54
777.72	-17.46
777.742	-87.46
777.764	-48.46
777.786	-58.46
777.808	-43.46
777.83	-16.46
777.852	-2.46
777.874	-2.46
777.896	-15.46
777.918	16.54
777.94	-2.46
777.962	-58.46
777.984	-24.46
778.006	-5.46
778.028	-26.46
778.05	-33.46
778.072	-45.46
778.094	-132.46
778.116	-15.46
778.138	-19.46
778.16	-27.46
778.182	-55.46
778.204	-16.46
778.226	-59.46
778.248	-64.46
778.27	25.54
778.292	4.54
778.314	8.54
778.336	-31.46
778.358	-43.46
778.38	-83.46
778.402	-84.46
778.424	-55.46
778.446	-48.46
778.468	80.54
778.49	-28.46
778.512	-85.46
778.534	67.54
778.556	-36.46
778.578	-121.46
778.6	-88.46
778.622	-31.46
778.644	-15.46
778.666	-14.46
778.688	11.54
778.71	42.54
778.732	-28.46
778.754	-76.46
778.775	-52.46
778.797	-14.46
778.819	-15.46
778.841	-31.46
778.863	-29.46
778.885	-46.46
778.907	-75.46
778.929	21.54
778.951	-70.46
778.973	-33.46
778.995	-0.46
779.016	-40.46
779.038	14.54
779.06	-15.46
779.082	-40.46
779.104	7.54
779.126	-88.46
779.148	-46.46
779.17	-78.46
779.191	-75.46
779.213	-18.46
779.235	-131.46
779.257	-37.46
779.279	-21.46
779.301	-46.46
779.323	-44.46
779.344	-58.46
779.366	-39.46
779.388	21.54
779.41	-41.46
